#volume(A^3/atom) P(kBar) E(eV/atom) T(k)
14.166860 456.955000 0.428669 650.457000
14.166860 456.996000 0.442175 703.322000
14.166860 457.355000 0.455347 748.652000
14.166860 457.320000 0.470079 798.601000
14.482644 429.838000 0.367183 695.592000
14.482644 429.932000 0.382364 746.119000
14.482644 430.034000 0.396941 795.542000
14.668167 414.931000 0.334149 746.513000
14.668167 415.297000 0.345898 795.705000
14.668167 415.521000 0.360541 845.896000
14.668167 415.715000 0.374371 895.549000
14.668167 416.020000 0.387232 945.044000
15.291840 368.233000 0.169205 696.787000
15.291840 368.671000 0.182174 746.478000
15.291840 369.300000 0.195057 795.857000
15.291840 370.098000 0.223215 894.813000
15.915514 329.577000 0.060639 796.338000
15.915514 330.162000 0.076123 845.976000
15.915514 330.708000 0.089131 896.253000
15.915514 331.052000 0.102408 946.075000
16.689184 288.813000 -0.042013 956.069000
16.689184 289.399000 -0.027899 999.532000
16.689184 290.063000 -0.013507 1053.400000
16.689184 290.705000 -0.001930 1098.390000
16.689184 288.242000 -0.058435 898.197000
17.419435 254.110000 -0.175193 900.645000
17.419435 254.762000 -0.159054 953.552000
17.419435 255.491000 -0.148227 996.141000
17.419435 255.824000 -0.133896 1051.960000
17.419435 256.545000 -0.123958 1095.200000
19.310192 186.132000 -0.417423 901.299000
19.310192 186.684000 -0.409209 948.519000
19.310192 187.600000 -0.394106 998.652000
19.310192 188.031000 -0.379340 1049.590000
19.310192 189.017000 -0.364026 1102.930000
19.310192 190.332000 -0.342136 1194.130000
19.310192 184.729000 -0.446071 798.199000
20.186492 161.945000 -0.516013 875.748000
20.186492 162.267000 -0.510894 905.229000
20.186492 162.457000 -0.501867 929.200000
20.186492 163.077000 -0.494588 949.205000
20.186492 163.334000 -0.488413 975.734000
20.186492 160.793000 -0.533994 803.803000
20.186492 163.416000 -0.481689 1001.390000
20.186492 164.965000 -0.458946 1099.040000
21.587784 129.386000 -0.653201 805.573000
21.587784 130.847000 -0.625368 896.651000
21.587784 131.493000 -0.613814 950.392000
21.587784 132.126000 -0.600191 998.891000
21.587784 132.811000 -0.588392 1046.010000
21.587784 133.650000 -0.574773 1098.560000
23.020654 104.429000 -0.745566 802.620000
23.020654 105.997000 -0.719805 899.526000
23.020654 106.445000 -0.706330 946.631000
23.020654 107.174000 -0.696767 1000.820000
23.020654 107.779000 -0.681669 1042.130000
23.020654 108.630000 -0.666420 1097.640000
24.635099 80.576700 -0.859806 688.367000
24.635099 82.930100 -0.819604 850.940000
24.635099 83.743600 -0.804474 897.183000
24.635099 84.341900 -0.789720 951.380000
24.635099 84.899800 -0.780253 993.335000
24.635099 85.501400 -0.769633 1046.700000
26.281123 63.378100 -0.922190 698.940000
26.281123 64.946300 -0.893173 800.122000
26.281123 65.565900 -0.883277 849.408000
26.281123 66.072000 -0.871327 890.986000
26.281123 66.969200 -0.854902 951.481000
26.281123 67.763000 -0.841760 995.219000
31.965235 26.008700 -1.069640 603.547000
31.965235 27.342400 -1.043620 693.830000
31.965235 28.333700 -1.025170 764.477000
31.965235 28.829100 -1.015070 801.871000
31.965235 29.490100 -1.002410 848.527000
33.611260 21.786100 -1.047280 745.479000
33.611260 22.616400 -1.030400 801.004000
33.611260 23.284600 -1.018740 852.612000
33.611260 23.750500 -1.008050 903.653000
33.611260 24.609000 -0.992147 960.642000
33.611260 20.039000 -1.082010 594.865000
33.611260 21.432600 -1.053240 710.474000
33.611260 25.226800 -0.981635 1010.960000
36.666470 11.955500 -1.086780 649.873000
36.666470 12.778800 -1.073270 692.999000
36.666470 13.157400 -1.062050 747.053000
36.666470 13.892600 -1.049020 799.098000
36.666470 14.495500 -1.039010 838.996000
36.666470 10.193400 -1.124160 492.640000
36.666470 11.486900 -1.097630 602.061000
36.666470 15.312000 -1.021730 904.609000
39.473000 3.441310 -1.153780 394.625000
39.473000 3.980160 -1.141160 445.233000
39.473000 4.784650 -1.125470 505.213000
39.473000 5.436030 -1.114090 548.772000
39.473000 6.315860 -1.098620 600.753000
39.473000 7.440460 -1.075560 700.729000

45.157112 0.939947 -1.062030 699.610000
45.157112 1.485340 -1.051060 749.060000
45.157112 1.820180 -1.041220 799.314000
45.157112 2.480590 -1.029090 849.410000

45.157112 0.717455 -1.074630 649.548000
45.157112 -0.020483 -1.085220 599.543000
45.157112 -0.647023 -1.096940 549.685000
45.157112 -1.225130 -1.108950 500.115000
45.157112 -1.836250 -1.121000 449.393000

37.104620 6.835840 -1.167960 349.752000
37.104620 7.696130 -1.152870 399.777000
37.104620 8.425770 -1.138540 449.585000
37.104620 9.189640 -1.124220 499.335000
37.104620 9.884520 -1.111380 549.321000
37.104620 10.600200 -1.096800 599.435000

37.894080 5.259090 -1.170170 349.705000
37.894080 6.148540 -1.152870 399.600000
37.894080 6.875290 -1.139480 449.788000
37.894080 7.533500 -1.126260 499.338000
37.894080 8.199650 -1.112900 549.244000
37.894080 8.914120 -1.100090 598.966000

38.683540 3.782300 -1.169360 349.241000
38.683540 4.723940 -1.153200 399.694000
38.683540 5.383790 -1.140130 449.656000
38.683540 6.141160 -1.125610 499.462000
38.683540 6.854460 -1.114160 549.233000
38.683540 7.440380 -1.099940 599.305000
40.262460 0.727149 -1.178900 299.929000
40.262460 1.487290 -1.166650 349.656000
40.262460 2.307300 -1.150090 400.009000
40.262460 3.011920 -1.137140 449.486000
40.262460 3.614150 -1.125130 499.484000
40.262460 4.314940 -1.111990 549.644000
40.262460 5.033150 -1.098700 599.561000
41.051920 -0.189194 -1.176540 299.741000
41.051920 0.418533 -1.164190 349.687000
41.051920 1.257650 -1.148920 399.857000
41.051920 1.949170 -1.136330 449.624000
41.051920 2.641560 -1.122850 499.743000
41.051920 3.191550 -1.111340 549.323000
41.051920 3.883570 -1.098070 599.586000
41.841380 -1.038070 -1.173070 299.783000
41.841380 -0.281884 -1.158970 350.078000
41.841380 0.256228 -1.147500 399.892000
41.841380 1.049210 -1.133590 449.682000
41.841380 1.768250 -1.120230 499.366000
41.841380 2.398960 -1.107970 549.748000
41.841380 2.935880 -1.096000 599.590000

43.420300 -1.002070 -1.141700 399.535000
43.420300 -0.516639 -1.128540 449.667000
43.420300 0.080765 -1.117080 499.156000
43.420300 0.774153 -1.102920 549.468000
43.420300 1.303410 -1.091910 599.553000


#47.359705 -1.424420 -1.176970 299.485000
#47.359705 -0.886495 -1.161830 349.438000
#47.359705 -0.365086 -1.114460 499.716000
#47.359705 0.020058 -1.103340 549.378000
